%T F 1    2    2    0    1    1    1    1    1    1    1    0    0   0.000   0.00
%    1    1    1    0    0    0  23.00000   0.00000   0.00000   0.00000   0.00000
% -99.000 -99.000 -99.000
% -99.00000 -99.00000 -99.00000  4.114728  0.000594 ! H2O & O3 COLUMNS [GM/CM2]
%   36TROPICAL MODEL      
%   0.00000   0.03498  88.00000   1.00000   0.00898   0.00000    0        0.00000
%    0    0    1    0
%   0.00000   0.00000   0.00000   0.00000   0.00000   0.00000   0.00000   0.00000
%    2000.0    3300.0       5.0      10.0NW              
%    0   0    0.000  0    0.000  0    1.000
%    FREQ  TOT_TRANS  PTH_THRML  THRML_SCT  SURF_EMIS   SOL_SCAT  SING_SCAT  GRND_RFLT  DRCT_RFLT  TOTAL_RAD  REF_SOL  SOL@OBS   DEPTH DIR_EM    TOA_SUN BBODY_T[K]
 2000.00 0.23476934 4.9297E-07 0.0000E+00 0.0000E+00 7.6437E-11 7.6437E-11 0.0000E+00 0.0000E+00 4.9305E-07 5.11E-08 1.17E-07   1.449 1.0000 9.2239E-07    291.571
 2005.00 0.30113512 4.4189E-07 0.0000E+00 0.0000E+00 1.0758E-10 1.0758E-10 0.0000E+00 0.0000E+00 4.4199E-07 7.34E-08 1.61E-07   1.200 1.0000 9.2736E-07    288.881
 2010.00 0.25606945 4.6221E-07 0.0000E+00 0.0000E+00 8.6627E-11 8.6627E-11 0.0000E+00 0.0000E+00 4.6230E-07 5.74E-08 1.32E-07   1.362 1.0000 9.3229E-07    290.691
 2015.00 0.17227446 5.0613E-07 0.0000E+00 0.0000E+00 5.1028E-11 5.1028E-11 0.0000E+00 0.0000E+00 5.0618E-07 3.17E-08 8.19E-08   1.759 1.0000 9.3612E-07    293.873
 2020.00 0.15522188 5.0889E-07 0.0000E+00 0.0000E+00 4.6244E-11 4.6244E-11 0.0000E+00 0.0000E+00 5.0893E-07 2.88E-08 7.40E-08   1.863 1.0000 9.3950E-07    294.542
 2025.00 0.28301862 4.2577E-07 0.0000E+00 0.0000E+00 1.2110E-10 1.2110E-10 0.0000E+00 0.0000E+00 4.2589E-07 9.07E-08 1.67E-07   1.262 1.0000 9.4325E-07    289.822
 2030.00 0.44761094 3.2220E-07 0.0000E+00 0.0000E+00 2.2600E-10 2.2600E-10 0.0000E+00 0.0000E+00 3.2242E-07 1.79E-07 2.95E-07   0.804 1.0000 9.4732E-07    282.508
 2035.00 0.42267713 3.2948E-07 0.0000E+00 0.0000E+00 2.1134E-10 2.1134E-10 0.0000E+00 0.0000E+00 3.2969E-07 1.67E-07 2.77E-07   0.861 1.0000 9.5239E-07    283.613
 2040.00 0.28100654 4.0412E-07 0.0000E+00 0.0000E+00 1.1846E-10 1.1846E-10 0.0000E+00 0.0000E+00 4.0424E-07 8.82E-08 1.63E-07   1.269 1.0000 9.5778E-07    289.826
 2045.00 0.31940940 3.7803E-07 0.0000E+00 0.0000E+00 1.3732E-10 1.3732E-10 0.0000E+00 0.0000E+00 3.7816E-07 1.06E-07 1.82E-07   1.141 1.0000 9.6143E-07    288.428
 2050.00 0.51025474 2.6772E-07 0.0000E+00 0.0000E+00 2.5010E-10 2.5010E-10 0.0000E+00 0.0000E+00 2.6797E-07 2.07E-07 3.11E-07   0.673 1.0000 9.6420E-07    279.495
 2055.00 0.54998809 2.4033E-07 0.0000E+00 0.0000E+00 2.6718E-10 2.6718E-10 0.0000E+00 0.0000E+00 2.4060E-07 2.23E-07 3.29E-07   0.598 1.0000 9.6834E-07    277.155
 2060.00 0.39381403 3.1812E-07 0.0000E+00 0.0000E+00 1.6798E-10 1.6798E-10 0.0000E+00 0.0000E+00 3.1829E-07 1.35E-07 2.14E-07   0.932 1.0000 9.7389E-07    285.113
 2065.00 0.33356059 3.4556E-07 0.0000E+00 0.0000E+00 1.3220E-10 1.3220E-10 0.0000E+00 0.0000E+00 3.4569E-07 1.03E-07 1.72E-07   1.098 1.0000 9.7929E-07    287.891
 2070.00 0.41980088 2.9592E-07 0.0000E+00 0.0000E+00 1.7659E-10 1.7659E-10 0.0000E+00 0.0000E+00 2.9609E-07 1.43E-07 2.22E-07   0.868 1.0000 9.8339E-07    284.125
 2075.00 0.44844237 2.7606E-07 0.0000E+00 0.0000E+00 1.8642E-10 1.8642E-10 0.0000E+00 0.0000E+00 2.7624E-07 1.52E-07 2.32E-07   0.802 1.0000 9.8588E-07    282.744
 2080.00 0.47859788 2.5711E-07 0.0000E+00 0.0000E+00 2.1572E-10 2.1572E-10 0.0000E+00 0.0000E+00 2.5732E-07 1.79E-07 2.62E-07   0.737 1.0000 9.8779E-07    281.343
 2085.00 0.48045656 2.5114E-07 0.0000E+00 0.0000E+00 2.3111E-10 2.3111E-10 0.0000E+00 0.0000E+00 2.5137E-07 1.91E-07 2.82E-07   0.733 1.0000 9.9077E-07    281.210
 2090.00 0.43646404 2.6834E-07 0.0000E+00 0.0000E+00 2.0199E-10 2.0199E-10 0.0000E+00 0.0000E+00 2.6855E-07 1.63E-07 2.51E-07   0.829 1.0000 9.9450E-07    283.450
 2095.00 0.51613718 2.2729E-07 0.0000E+00 0.0000E+00 2.5576E-10 2.5576E-10 0.0000E+00 0.0000E+00 2.2755E-07 2.13E-07 3.08E-07   0.661 1.0000 9.9935E-07    279.573
 2100.00 0.62058204 1.7484E-07 0.0000E+00 0.0000E+00 3.4542E-10 3.4542E-10 0.0000E+00 0.0000E+00 1.7519E-07 3.00E-07 3.98E-07   0.477 1.0000 1.0053E-06    273.427
 2105.00 0.66541177 1.5149E-07 0.0000E+00 0.0000E+00 3.9960E-10 3.9960E-10 0.0000E+00 0.0000E+00 1.5189E-07 3.54E-07 4.50E-07   0.407 1.0000 1.0100E-06    270.412
 2110.00 0.64157760 1.5914E-07 0.0000E+00 0.0000E+00 3.9758E-10 3.9758E-10 0.0000E+00 0.0000E+00 1.5954E-07 3.53E-07 4.47E-07   0.444 1.0000 1.0138E-06    272.074
 2115.00 0.58693659 1.8065E-07 0.0000E+00 0.0000E+00 3.4674E-10 3.4674E-10 0.0000E+00 0.0000E+00 1.8099E-07 3.05E-07 3.92E-07   0.533 1.0000 1.0166E-06    275.661
 2120.00 0.61033195 1.6785E-07 0.0000E+00 0.0000E+00 3.3599E-10 3.3599E-10 0.0000E+00 0.0000E+00 1.6819E-07 2.95E-07 3.80E-07   0.494 1.0000 1.0190E-06    274.313
 2125.00 0.68034524 1.3553E-07 0.0000E+00 0.0000E+00 4.0293E-10 4.0293E-10 0.0000E+00 0.0000E+00 1.3594E-07 3.59E-07 4.47E-07   0.385 1.0000 1.0237E-06    269.626
 2130.00 0.70344073 1.2312E-07 0.0000E+00 0.0000E+00 4.7616E-10 4.7616E-10 0.0000E+00 0.0000E+00 1.2360E-07 4.30E-07 5.20E-07   0.352 1.0000 1.0287E-06    267.846
 2135.00 0.61625028 1.5619E-07 0.0000E+00 0.0000E+00 4.4714E-10 4.4714E-10 0.0000E+00 0.0000E+00 1.5663E-07 3.99E-07 4.93E-07   0.484 1.0000 1.0314E-06    273.979
 2140.00 0.55270660 1.7992E-07 0.0000E+00 0.0000E+00 4.0231E-10 4.0231E-10 0.0000E+00 0.0000E+00 1.8032E-07 3.50E-07 4.54E-07   0.593 1.0000 1.0320E-06    277.938
 2145.00 0.60283101 1.5724E-07 0.0000E+00 0.0000E+00 4.3435E-10 4.3435E-10 0.0000E+00 0.0000E+00 1.5767E-07 3.76E-07 4.90E-07   0.506 1.0000 1.0299E-06    275.081
 2150.00 0.66978139 1.2844E-07 0.0000E+00 0.0000E+00 4.8323E-10 4.8323E-10 0.0000E+00 0.0000E+00 1.2892E-07 4.22E-07 5.38E-07   0.401 1.0000 1.0314E-06    270.696
 2155.00 0.69133985 1.1781E-07 0.0000E+00 0.0000E+00 5.0281E-10 5.0281E-10 0.0000E+00 0.0000E+00 1.1831E-07 4.42E-07 5.54E-07   0.369 1.0000 1.0415E-06    269.138
 2160.00 0.68223286 1.1921E-07 0.0000E+00 0.0000E+00 4.9743E-10 4.9743E-10 0.0000E+00 0.0000E+00 1.1971E-07 4.39E-07 5.45E-07   0.382 1.0000 1.0497E-06    269.875
 2165.00 0.70422208 1.0937E-07 0.0000E+00 0.0000E+00 5.0576E-10 5.0576E-10 0.0000E+00 0.0000E+00 1.0988E-07 4.49E-07 5.49E-07   0.351 1.0000 1.0523E-06    268.341
 2170.00 0.74785495 9.1623E-08 0.0000E+00 0.0000E+00 5.1487E-10 5.1487E-10 0.0000E+00 0.0000E+00 9.2138E-08 4.60E-07 5.54E-07   0.291 1.0000 1.0534E-06    264.787
 2175.00 0.75339872 8.7828E-08 0.0000E+00 0.0000E+00 4.8050E-10 4.8050E-10 0.0000E+00 0.0000E+00 8.8308E-08 4.27E-07 5.18E-07   0.283 1.0000 1.0533E-06    264.291
 2180.00 0.69837719 1.0539E-07 0.0000E+00 0.0000E+00 3.8911E-10 3.8911E-10 0.0000E+00 0.0000E+00 1.0578E-07 3.40E-07 4.25E-07   0.359 1.0000 1.0571E-06    268.840
 2185.00 0.63124681 1.2684E-07 0.0000E+00 0.0000E+00 2.8948E-10 2.8948E-10 0.0000E+00 0.0000E+00 1.2713E-07 2.47E-07 3.23E-07   0.460 1.0000 1.0668E-06    273.607
 2190.00 0.60283184 1.3449E-07 0.0000E+00 0.0000E+00 2.3467E-10 2.3467E-10 0.0000E+00 0.0000E+00 1.3472E-07 1.97E-07 2.64E-07   0.506 1.0000 1.0745E-06    275.460
 2195.00 0.57283980 1.4204E-07 0.0000E+00 0.0000E+00 1.9177E-10 1.9177E-10 0.0000E+00 0.0000E+00 1.4223E-07 1.61E-07 2.16E-07   0.557 1.0000 1.0782E-06    277.238
 2200.00 0.50635099 1.6128E-07 0.0000E+00 0.0000E+00 1.3784E-10 1.3784E-10 0.0000E+00 0.0000E+00 1.6141E-07 1.14E-07 1.57E-07   0.681 1.0000 1.0791E-06    280.820
 2205.00 0.43281963 1.8222E-07 0.0000E+00 0.0000E+00 9.3759E-11 9.3759E-11 0.0000E+00 0.0000E+00 1.8232E-07 7.53E-08 1.09E-07   0.837 1.0000 1.0793E-06    284.358
 2210.00 0.39859778 1.9017E-07 0.0000E+00 0.0000E+00 6.9676E-11 6.9676E-11 0.0000E+00 0.0000E+00 1.9024E-07 5.44E-08 8.28E-08   0.920 1.0000 1.0849E-06    285.919
 2215.00 0.43271542 1.7660E-07 0.0000E+00 0.0000E+00 7.2057E-11 7.2057E-11 0.0000E+00 0.0000E+00 1.7667E-07 5.63E-08 8.52E-08   0.838 1.0000 1.0961E-06    284.500
 2220.00 0.49638689 1.5406E-07 0.0000E+00 0.0000E+00 9.5047E-11 9.5047E-11 0.0000E+00 0.0000E+00 1.5416E-07 7.54E-08 1.11E-07   0.700 1.0000 1.1046E-06    281.546
 2225.00 0.48186636 1.5529E-07 0.0000E+00 0.0000E+00 9.2892E-11 9.2892E-11 0.0000E+00 0.0000E+00 1.5538E-07 7.33E-08 1.08E-07   0.730 1.0000 1.1079E-06    282.209
 2230.00 0.36021787 1.8834E-07 0.0000E+00 0.0000E+00 4.9275E-11 4.9275E-11 0.0000E+00 0.0000E+00 1.8839E-07 3.77E-08 5.90E-08   1.021 1.0000 1.1079E-06    287.555
 2235.00 0.23751976 2.2097E-07 0.0000E+00 0.0000E+00 1.5757E-11 1.5757E-11 0.0000E+00 0.0000E+00 2.2099E-07 1.10E-08 2.04E-08   1.438 1.0000 1.1083E-06    292.204
 2240.00 0.17096670 2.3635E-07 0.0000E+00 0.0000E+00 7.1530E-12 7.1530E-12 0.0000E+00 0.0000E+00 2.3636E-07 4.57E-09 9.83E-09   1.766 1.0000 1.1171E-06    294.477
 2245.00 0.13359372 2.4285E-07 0.0000E+00 0.0000E+00 3.9188E-12 3.9188E-12 0.0000E+00 0.0000E+00 2.4286E-07 2.31E-09 5.69E-09   2.013 1.0000 1.1302E-06    295.687
 2250.00 0.09993042 2.4798E-07 0.0000E+00 0.0000E+00 2.0496E-12 2.0496E-12 0.0000E+00 0.0000E+00 2.4798E-07 1.15E-09 3.09E-09   2.303 1.0000 1.1372E-06    296.731
 2255.00 0.06665558 2.5280E-07 0.0000E+00 0.0000E+00 6.8205E-13 6.8205E-13 0.0000E+00 0.0000E+00 2.5280E-07 3.58E-10 1.08E-09   2.708 1.0000 1.1390E-06    297.734
 2260.00 0.04384004 2.5461E-07 0.0000E+00 0.0000E+00 1.0737E-13 1.0737E-13 0.0000E+00 0.0000E+00 2.5461E-07 4.86E-11 1.87E-10   3.127 1.0000 1.1379E-06    298.407
 2265.00 0.02964889 2.5400E-07 0.0000E+00 0.0000E+00 1.1611E-14 1.1611E-14 0.0000E+00 0.0000E+00 2.5400E-07 4.37E-12 2.25E-11   3.518 1.0000 1.1382E-06    298.820
 2270.00 0.01918205 2.5236E-07 0.0000E+00 0.0000E+00 1.0803E-15 1.0803E-15 0.0000E+00 0.0000E+00 2.5236E-07 3.16E-13 2.41E-12   3.954 1.0000 1.1500E-06    299.120
 2275.00 0.01143583 2.5001E-07 0.0000E+00 0.0000E+00 1.8532E-15 1.8532E-15 0.0000E+00 0.0000E+00 2.5001E-07 4.91E-13 4.28E-12   4.471 1.0000 1.1680E-06    299.342
 2280.00 0.00697252 2.4684E-07 0.0000E+00 0.0000E+00 6.4021E-15 6.4021E-15 0.0000E+00 0.0000E+00 2.4684E-07 1.69E-12 1.48E-11   4.966 1.0000 1.1775E-06    299.470
 2285.00 0.00417820 2.4330E-07 0.0000E+00 0.0000E+00 7.5083E-15 7.5083E-15 0.0000E+00 0.0000E+00 2.4330E-07 1.97E-12 1.74E-11   5.478 1.0000 1.1791E-06    299.553
 2290.00 0.00132981 2.3986E-07 0.0000E+00 0.0000E+00 2.8757E-15 2.8757E-15 0.0000E+00 0.0000E+00 2.3986E-07 7.51E-13 6.67E-12   6.623 1.0000 1.1785E-06    299.640
 2295.00 0.00005666 2.3608E-07 0.0000E+00 0.0000E+00 8.4863E-19 8.4863E-19 0.0000E+00 0.0000E+00 2.3608E-07 1.40E-16 2.57E-15   9.778 1.0000 1.1822E-06    299.683
 2300.00 0.00000203 2.3205E-07 0.0000E+00 0.0000E+00 0.0000E+00 0.0000E+00 0.0000E+00 0.0000E+00 2.3205E-07 0.00E+00 0.00E+00  13.109 1.0000 1.1981E-06    299.689
 2305.00 0.00000005 2.2805E-07 0.0000E+00 0.0000E+00 0.0000E+00 0.0000E+00 0.0000E+00 0.0000E+00 2.2805E-07 0.00E+00 0.00E+00  16.781 1.0000 1.2169E-06    299.693
 2310.00 0.00000000 2.2412E-07 0.0000E+00 0.0000E+00 0.0000E+00 0.0000E+00 0.0000E+00 0.0000E+00 2.2412E-07 0.00E+00 0.00E+00  22.031 1.0000 1.2263E-06    299.696
 2315.00 0.00000000 2.2024E-07 0.0000E+00 0.0000E+00 0.0000E+00 0.0000E+00 0.0000E+00 0.0000E+00 2.2024E-07 0.00E+00 0.00E+00  29.763 1.0000 1.2295E-06    299.698
 2320.00 0.00000000 2.1642E-07 0.0000E+00 0.0000E+00 0.0000E+00 0.0000E+00 0.0000E+00 0.0000E+00 2.1642E-07 0.00E+00 0.00E+00  42.877 1.0000 1.2288E-06    299.699
 2325.00 0.00000000 2.1266E-07 0.0000E+00 0.0000E+00 0.0000E+00 0.0000E+00 0.0000E+00 0.0000E+00 2.1266E-07 0.00E+00 0.00E+00  67.396 1.0000 1.2313E-06    299.699
 2330.00 0.00000000 2.0896E-07 0.0000E+00 0.0000E+00 0.0000E+00 0.0000E+00 0.0000E+00 0.0000E+00 2.0896E-07 0.00E+00 0.00E+00  99.990 1.0000 1.2483E-06    299.699
 2335.00 0.00000000 2.0532E-07 0.0000E+00 0.0000E+00 0.0000E+00 0.0000E+00 0.0000E+00 0.0000E+00 2.0532E-07 0.00E+00 0.00E+00  99.990 1.0000 1.2689E-06    299.699
 2340.00 0.00000000 2.0174E-07 0.0000E+00 0.0000E+00 0.0000E+00 0.0000E+00 0.0000E+00 0.0000E+00 2.0174E-07 0.00E+00 0.00E+00  99.990 1.0000 1.2790E-06    299.699
 2345.00 0.00000000 1.9822E-07 0.0000E+00 0.0000E+00 0.0000E+00 0.0000E+00 0.0000E+00 0.0000E+00 1.9822E-07 0.00E+00 0.00E+00  99.990 1.0000 1.2835E-06    299.699
 2350.00 0.00000000 1.9476E-07 0.0000E+00 0.0000E+00 0.0000E+00 0.0000E+00 0.0000E+00 0.0000E+00 1.9476E-07 0.00E+00 0.00E+00  99.990 1.0000 1.2875E-06    299.699
 2355.00 0.00000000 1.9135E-07 0.0000E+00 0.0000E+00 0.0000E+00 0.0000E+00 0.0000E+00 0.0000E+00 1.9135E-07 0.00E+00 0.00E+00  99.990 1.0000 1.2920E-06    299.699
 2360.00 0.00000000 1.8801E-07 0.0000E+00 0.0000E+00 0.0000E+00 0.0000E+00 0.0000E+00 0.0000E+00 1.8801E-07 0.00E+00 0.00E+00  99.990 1.0000 1.2986E-06    299.699
 2365.00 0.00000000 1.8472E-07 0.0000E+00 0.0000E+00 0.0000E+00 0.0000E+00 0.0000E+00 0.0000E+00 1.8472E-07 0.00E+00 0.00E+00  99.990 1.0000 1.3049E-06    299.699
 2370.00 0.00000000 1.8148E-07 0.0000E+00 0.0000E+00 0.0000E+00 0.0000E+00 0.0000E+00 0.0000E+00 1.8148E-07 0.00E+00 0.00E+00  34.490 1.0000 1.3077E-06    299.699
 2375.00 0.00000585 1.7829E-07 0.0000E+00 0.0000E+00 1.2962E-18 1.2962E-18 0.0000E+00 0.0000E+00 1.7829E-07 6.39E-17 5.68E-15  12.049 1.0000 1.3076E-06    299.697
 2380.00 0.00576599 1.7412E-07 0.0000E+00 0.0000E+00 6.8668E-13 6.8668E-13 0.0000E+00 0.0000E+00 1.7412E-07 3.26E-10 1.06E-09   5.156 1.0000 1.3108E-06    299.540
 2385.00 0.09740990 1.5549E-07 0.0000E+00 0.0000E+00 3.3017E-11 3.3017E-11 0.0000E+00 0.0000E+00 1.5552E-07 2.24E-08 3.85E-08   2.329 1.0000 1.3194E-06    297.071
 2390.00 0.36484566 1.0786E-07 0.0000E+00 0.0000E+00 1.7252E-10 1.7252E-10 0.0000E+00 0.0000E+00 1.0803E-07 1.29E-07 1.84E-07   1.008 1.0000 1.3266E-06    288.438
 2395.00 0.66731274 5.5555E-08 0.0000E+00 0.0000E+00 3.9757E-10 3.9757E-10 0.0000E+00 0.0000E+00 5.5953E-08 3.14E-07 4.02E-07   0.404 1.0000 1.3318E-06    273.788
 2400.00 0.81267518 3.0555E-08 0.0000E+00 0.0000E+00 5.7601E-10 5.7601E-10 0.0000E+00 0.0000E+00 3.1131E-08 4.67E-07 5.64E-07   0.207 1.0000 1.3383E-06    262.024
 2405.00 0.84627599 2.4584E-08 0.0000E+00 0.0000E+00 6.7722E-10 6.7722E-10 0.0000E+00 0.0000E+00 2.5262E-08 5.56E-07 6.53E-07   0.167 1.0000 1.3436E-06    258.351
 2410.00 0.86243111 2.1608E-08 0.0000E+00 0.0000E+00 7.5071E-10 7.5071E-10 0.0000E+00 0.0000E+00 2.2359E-08 6.21E-07 7.16E-07   0.148 1.0000 1.3475E-06    256.432
 2415.00 0.87415284 1.9412E-08 0.0000E+00 0.0000E+00 8.1097E-10 8.1097E-10 0.0000E+00 0.0000E+00 2.0223E-08 6.74E-07 7.67E-07   0.135 1.0000 1.3533E-06    254.954
 2420.00 0.88235283 1.7823E-08 0.0000E+00 0.0000E+00 8.5963E-10 8.5963E-10 0.0000E+00 0.0000E+00 1.8683E-08 7.16E-07 8.08E-07   0.125 1.0000 1.3602E-06    253.890
 2425.00 0.88840955 1.6605E-08 0.0000E+00 0.0000E+00 8.9791E-10 8.9791E-10 0.0000E+00 0.0000E+00 1.7503E-08 7.49E-07 8.39E-07   0.118 1.0000 1.3660E-06    253.097
 2430.00 0.89314342 1.5618E-08 0.0000E+00 0.0000E+00 9.2796E-10 9.2796E-10 0.0000E+00 0.0000E+00 1.6546E-08 7.74E-07 8.63E-07   0.113 1.0000 1.3704E-06    252.475
 2435.00 0.89697921 1.4789E-08 0.0000E+00 0.0000E+00 9.5245E-10 9.5245E-10 0.0000E+00 0.0000E+00 1.5742E-08 7.95E-07 8.82E-07   0.109 1.0000 1.3755E-06    251.976
 2440.00 0.90053993 1.4027E-08 0.0000E+00 0.0000E+00 9.7244E-10 9.7244E-10 0.0000E+00 0.0000E+00 1.4999E-08 8.11E-07 8.97E-07   0.105 1.0000 1.3802E-06    251.508
 2445.00 0.90479022 1.3191E-08 0.0000E+00 0.0000E+00 9.9479E-10 9.9479E-10 0.0000E+00 0.0000E+00 1.4186E-08 8.30E-07 9.14E-07   0.100 1.0000 1.3840E-06    250.911
 2450.00 0.91002882 1.2246E-08 0.0000E+00 0.0000E+00 1.0281E-09 1.0281E-09 0.0000E+00 0.0000E+00 1.3275E-08 8.58E-07 9.40E-07   0.094 1.0000 1.3892E-06    250.130
 2455.00 0.91627854 1.1196E-08 0.0000E+00 0.0000E+00 1.0739E-09 1.0739E-09 0.0000E+00 0.0000E+00 1.2270E-08 8.98E-07 9.76E-07   0.087 1.0000 1.3932E-06    249.141
 2460.00 0.92179650 1.0269E-08 0.0000E+00 0.0000E+00 1.1157E-09 1.1157E-09 0.0000E+00 0.0000E+00 1.1385E-08 9.33E-07 1.01E-06   0.081 1.0000 1.3925E-06    248.231
 2465.00 0.92490649 9.6824E-09 0.0000E+00 0.0000E+00 1.1349E-09 1.1349E-09 0.0000E+00 0.0000E+00 1.0817E-08 9.49E-07 1.02E-06   0.078 1.0000 1.3891E-06    247.741
 2470.00 0.92736030 9.2009E-09 0.0000E+00 0.0000E+00 1.1487E-09 1.1487E-09 0.0000E+00 0.0000E+00 1.0350E-08 9.60E-07 1.03E-06   0.075 1.0000 1.3937E-06    247.375
 2475.00 0.93080932 8.6098E-09 0.0000E+00 0.0000E+00 1.1813E-09 1.1813E-09 0.0000E+00 0.0000E+00 9.7911E-09 9.87E-07 1.06E-06   0.072 1.0000 1.4087E-06    246.818
 2480.00 0.93464029 7.9886E-09 0.0000E+00 0.0000E+00 1.2263E-09 1.2263E-09 0.0000E+00 0.0000E+00 9.2149E-09 1.02E-06 1.09E-06   0.068 1.0000 1.4200E-06    246.179
 2485.00 0.93873131 7.3565E-09 0.0000E+00 0.0000E+00 1.2710E-09 1.2710E-09 0.0000E+00 0.0000E+00 8.6275E-09 1.06E-06 1.13E-06   0.063 1.0000 1.4230E-06    245.457
 2490.00 0.94279641 6.7452E-09 0.0000E+00 0.0000E+00 1.3105E-09 1.3105E-09 0.0000E+00 0.0000E+00 8.0557E-09 1.09E-06 1.16E-06   0.059 1.0000 1.4264E-06    244.698
 2495.00 0.94582033 6.2732E-09 0.0000E+00 0.0000E+00 1.3460E-09 1.3460E-09 0.0000E+00 0.0000E+00 7.6192E-09 1.12E-06 1.19E-06   0.056 1.0000 1.4329E-06    244.160
 2500.00 0.94844919 5.8632E-09 0.0000E+00 0.0000E+00 1.3803E-09 1.3803E-09 0.0000E+00 0.0000E+00 7.2435E-09 1.15E-06 1.21E-06   0.053 1.0000 1.4366E-06    243.711
 2505.00 0.95129782 5.4404E-09 0.0000E+00 0.0000E+00 1.4099E-09 1.4099E-09 0.0000E+00 0.0000E+00 6.8504E-09 1.18E-06 1.23E-06   0.050 1.0000 1.4400E-06    243.181
 2510.00 0.95273513 5.1820E-09 0.0000E+00 0.0000E+00 1.4305E-09 1.4305E-09 0.0000E+00 0.0000E+00 6.6124E-09 1.19E-06 1.25E-06   0.048 1.0000 1.4481E-06    242.988
 2515.00 0.95252168 5.1116E-09 0.0000E+00 0.0000E+00 1.4471E-09 1.4471E-09 0.0000E+00 0.0000E+00 6.5587E-09 1.20E-06 1.26E-06   0.049 1.0000 1.4572E-06    243.241
 2520.00 0.95352149 4.9180E-09 0.0000E+00 0.0000E+00 1.4663E-09 1.4663E-09 0.0000E+00 0.0000E+00 6.3843E-09 1.22E-06 1.27E-06   0.048 1.0000 1.4633E-06    243.187
 2525.00 0.95392400 4.7830E-09 0.0000E+00 0.0000E+00 1.4710E-09 1.4710E-09 0.0000E+00 0.0000E+00 6.2540E-09 1.22E-06 1.27E-06   0.047 1.0000 1.4663E-06    243.236
 2530.00 0.95010102 5.0821E-09 0.0000E+00 0.0000E+00 1.4515E-09 1.4515E-09 0.0000E+00 0.0000E+00 6.5335E-09 1.20E-06 1.26E-06   0.051 1.0000 1.4711E-06    244.336
 2535.00 0.94699657 5.3090E-09 0.0000E+00 0.0000E+00 1.4304E-09 1.4304E-09 0.0000E+00 0.0000E+00 6.7394E-09 1.18E-06 1.24E-06   0.054 1.0000 1.4795E-06    245.232
 2540.00 0.94500214 5.4055E-09 0.0000E+00 0.0000E+00 1.4061E-09 1.4061E-09 0.0000E+00 0.0000E+00 6.8116E-09 1.15E-06 1.21E-06   0.057 1.0000 1.4874E-06    245.794
 2545.00 0.93764764 6.0110E-09 0.0000E+00 0.0000E+00 1.3633E-09 1.3633E-09 0.0000E+00 0.0000E+00 7.3743E-09 1.11E-06 1.18E-06   0.064 1.0000 1.4934E-06    247.501
 2550.00 0.93325830 6.3343E-09 0.0000E+00 0.0000E+00 1.3392E-09 1.3392E-09 0.0000E+00 0.0000E+00 7.6735E-09 1.09E-06 1.16E-06   0.069 1.0000 1.4990E-06    248.556
 2555.00 0.93890482 5.7003E-09 0.0000E+00 0.0000E+00 1.3746E-09 1.3746E-09 0.0000E+00 0.0000E+00 7.0748E-09 1.12E-06 1.18E-06   0.063 1.0000 1.5043E-06    247.583
 2560.00 0.93723941 5.7307E-09 0.0000E+00 0.0000E+00 1.4147E-09 1.4147E-09 0.0000E+00 0.0000E+00 7.1453E-09 1.15E-06 1.21E-06   0.065 1.0000 1.5086E-06    248.135
 2565.00 0.92769611 6.4910E-09 0.0000E+00 0.0000E+00 1.3931E-09 1.3931E-09 0.0000E+00 0.0000E+00 7.8840E-09 1.12E-06 1.20E-06   0.075 1.0000 1.5124E-06    250.179
 2570.00 0.92519242 6.5981E-09 0.0000E+00 0.0000E+00 1.3407E-09 1.3407E-09 0.0000E+00 0.0000E+00 7.9388E-09 1.08E-06 1.15E-06   0.078 1.0000 1.5169E-06    250.685
 2575.00 0.91649002 7.2151E-09 0.0000E+00 0.0000E+00 1.2896E-09 1.2896E-09 0.0000E+00 0.0000E+00 8.5048E-09 1.03E-06 1.11E-06   0.087 1.0000 1.5226E-06    252.251
 2580.00 0.90780395 7.8459E-09 0.0000E+00 0.0000E+00 1.2895E-09 1.2895E-09 0.0000E+00 0.0000E+00 9.1354E-09 1.03E-06 1.11E-06   0.097 1.0000 1.5285E-06    253.876
 2585.00 0.90753281 7.7235E-09 0.0000E+00 0.0000E+00 1.3443E-09 1.3443E-09 0.0000E+00 0.0000E+00 9.0678E-09 1.07E-06 1.15E-06   0.097 1.0000 1.5329E-06    254.138
 2590.00 0.90290111 7.9578E-09 0.0000E+00 0.0000E+00 1.3987E-09 1.3987E-09 0.0000E+00 0.0000E+00 9.3565E-09 1.11E-06 1.20E-06   0.102 1.0000 1.5390E-06    255.075
 2595.00 0.90950835 7.3083E-09 0.0000E+00 0.0000E+00 1.4769E-09 1.4769E-09 0.0000E+00 0.0000E+00 8.7852E-09 1.17E-06 1.26E-06   0.095 1.0000 1.5475E-06    254.370
 2600.00 0.90779579 7.2708E-09 0.0000E+00 0.0000E+00 1.4994E-09 1.4994E-09 0.0000E+00 0.0000E+00 8.7703E-09 1.19E-06 1.27E-06   0.097 1.0000 1.5538E-06    254.730
 2605.00 0.88342601 9.0262E-09 0.0000E+00 0.0000E+00 1.4463E-09 1.4463E-09 0.0000E+00 0.0000E+00 1.0473E-08 1.14E-06 1.23E-06   0.124 1.0000 1.5577E-06    258.238
 2610.00 0.89278555 8.2178E-09 0.0000E+00 0.0000E+00 1.5069E-09 1.5069E-09 0.0000E+00 0.0000E+00 9.7247E-09 1.19E-06 1.28E-06   0.113 1.0000 1.5628E-06    257.318
 2615.00 0.90638638 6.9999E-09 0.0000E+00 0.0000E+00 1.5664E-09 1.5664E-09 0.0000E+00 0.0000E+00 8.5663E-09 1.24E-06 1.32E-06   0.098 1.0000 1.5677E-06    255.490
 2620.00 0.86465484 9.8935E-09 0.0000E+00 0.0000E+00 1.4321E-09 1.4321E-09 0.0000E+00 0.0000E+00 1.1326E-08 1.12E-06 1.22E-06   0.145 1.0000 1.5709E-06    260.823
 2625.00 0.85364932 1.0605E-08 0.0000E+00 0.0000E+00 1.3982E-09 1.3982E-09 0.0000E+00 0.0000E+00 1.2004E-08 1.09E-06 1.19E-06   0.158 1.0000 1.5752E-06    262.272
 2630.00 0.88943172 7.8602E-09 0.0000E+00 0.0000E+00 1.5263E-09 1.5263E-09 0.0000E+00 0.0000E+00 9.3865E-09 1.19E-06 1.28E-06   0.117 1.0000 1.5802E-06    258.258
 2635.00 0.87339461 8.7594E-09 0.0000E+00 0.0000E+00 1.4913E-09 1.4913E-09 0.0000E+00 0.0000E+00 1.0251E-08 1.16E-06 1.26E-06   0.135 1.0000 1.5843E-06    260.212
 2640.00 0.84715450 1.0449E-08 0.0000E+00 0.0000E+00 1.4158E-09 1.4158E-09 0.0000E+00 0.0000E+00 1.1865E-08 1.09E-06 1.20E-06   0.166 1.0000 1.5891E-06    263.246
 2645.00 0.86128163 9.3303E-09 0.0000E+00 0.0000E+00 1.4647E-09 1.4647E-09 0.0000E+00 0.0000E+00 1.0795E-08 1.13E-06 1.23E-06   0.149 1.0000 1.5942E-06    261.926
 2650.00 0.86388516 8.9549E-09 0.0000E+00 0.0000E+00 1.4809E-09 1.4809E-09 0.0000E+00 0.0000E+00 1.0436E-08 1.14E-06 1.24E-06   0.146 1.0000 1.6000E-06    261.709
 2655.00 0.84918195 9.7423E-09 0.0000E+00 0.0000E+00 1.4396E-09 1.4396E-09 0.0000E+00 0.0000E+00 1.1182E-08 1.10E-06 1.21E-06   0.163 1.0000 1.6058E-06    263.349
 2660.00 0.84395617 9.9114E-09 0.0000E+00 0.0000E+00 1.4237E-09 1.4237E-09 0.0000E+00 0.0000E+00 1.1335E-08 1.09E-06 1.20E-06   0.170 1.0000 1.6074E-06    263.990
 2665.00 0.86467636 8.4641E-09 0.0000E+00 0.0000E+00 1.4894E-09 1.4894E-09 0.0000E+00 0.0000E+00 9.9535E-09 1.14E-06 1.24E-06   0.145 1.0000 1.6016E-06    262.035
 2670.00 0.88044351 7.3116E-09 0.0000E+00 0.0000E+00 1.5307E-09 1.5307E-09 0.0000E+00 0.0000E+00 8.8423E-09 1.18E-06 1.27E-06   0.127 1.0000 1.5941E-06    260.320
 2675.00 0.85947734 8.4224E-09 0.0000E+00 0.0000E+00 1.4645E-09 1.4645E-09 0.0000E+00 0.0000E+00 9.8869E-09 1.12E-06 1.22E-06   0.151 1.0000 1.6033E-06    262.696
 2680.00 0.86820930 7.8109E-09 0.0000E+00 0.0000E+00 1.5186E-09 1.5186E-09 0.0000E+00 0.0000E+00 9.3295E-09 1.16E-06 1.27E-06   0.141 1.0000 1.6273E-06    262.049
 2685.00 0.90314925 5.6233E-09 0.0000E+00 0.0000E+00 1.6486E-09 1.6486E-09 0.0000E+00 0.0000E+00 7.2718E-09 1.28E-06 1.36E-06   0.102 1.0000 1.6418E-06    258.069
 2690.00 0.89220744 6.1055E-09 0.0000E+00 0.0000E+00 1.5993E-09 1.5993E-09 0.0000E+00 0.0000E+00 7.7048E-09 1.23E-06 1.33E-06   0.114 1.0000 1.6433E-06    259.456
 2695.00 0.88746113 6.3020E-09 0.0000E+00 0.0000E+00 1.5715E-09 1.5715E-09 0.0000E+00 0.0000E+00 7.8735E-09 1.21E-06 1.31E-06   0.119 1.0000 1.6417E-06    260.219
 2700.00 0.91722339 4.5522E-09 0.0000E+00 0.0000E+00 1.6772E-09 1.6772E-09 0.0000E+00 0.0000E+00 6.2294E-09 1.30E-06 1.39E-06   0.086 1.0000 1.6416E-06    256.573
 2705.00 0.91316003 4.6474E-09 0.0000E+00 0.0000E+00 1.6549E-09 1.6549E-09 0.0000E+00 0.0000E+00 6.3023E-09 1.28E-06 1.37E-06   0.091 1.0000 1.6500E-06    257.151
 2710.00 0.86066091 7.3175E-09 0.0000E+00 0.0000E+00 1.4615E-09 1.4615E-09 0.0000E+00 0.0000E+00 8.7790E-09 1.10E-06 1.24E-06   0.150 1.0000 1.6628E-06    263.296
 2715.00 0.75022072 1.2859E-08 0.0000E+00 0.0000E+00 1.1527E-09 1.1527E-09 0.0000E+00 0.0000E+00 1.4011E-08 8.47E-07 1.00E-06   0.287 1.0000 1.6697E-06    272.276
 2720.00 0.65819675 1.7378E-08 0.0000E+00 0.0000E+00 9.3079E-10 9.3079E-10 0.0000E+00 0.0000E+00 1.8308E-08 6.70E-07 8.27E-07   0.418 1.0000 1.6772E-06    277.851
 2725.00 0.72433823 1.3875E-08 0.0000E+00 0.0000E+00 1.1266E-09 1.1266E-09 0.0000E+00 0.0000E+00 1.5001E-08 8.35E-07 9.74E-07   0.322 1.0000 1.6880E-06    274.374
 2730.00 0.85611826 7.1197E-09 0.0000E+00 0.0000E+00 1.5140E-09 1.5140E-09 0.0000E+00 0.0000E+00 8.6337E-09 1.16E-06 1.27E-06   0.155 1.0000 1.6941E-06    264.547
 2735.00 0.90911245 4.3793E-09 0.0000E+00 0.0000E+00 1.6794E-09 1.6794E-09 0.0000E+00 0.0000E+00 6.0586E-09 1.30E-06 1.39E-06   0.095 1.0000 1.6974E-06    258.763
 2740.00 0.91822737 3.8737E-09 0.0000E+00 0.0000E+00 1.7044E-09 1.7044E-09 0.0000E+00 0.0000E+00 5.5781E-09 1.32E-06 1.41E-06   0.085 1.0000 1.7041E-06    257.743
 2745.00 0.92220426 3.6064E-09 0.0000E+00 0.0000E+00 1.7372E-09 1.7372E-09 0.0000E+00 0.0000E+00 5.3437E-09 1.35E-06 1.44E-06   0.081 1.0000 1.7132E-06    257.399
 2750.00 0.90035713 4.5148E-09 0.0000E+00 0.0000E+00 1.6856E-09 1.6856E-09 0.0000E+00 0.0000E+00 6.2004E-09 1.30E-06 1.40E-06   0.105 1.0000 1.7218E-06    260.298
 2755.00 0.88862634 4.9862E-09 0.0000E+00 0.0000E+00 1.6504E-09 1.6504E-09 0.0000E+00 0.0000E+00 6.6366E-09 1.27E-06 1.38E-06   0.118 1.0000 1.7291E-06    261.848
 2760.00 0.89345127 4.6744E-09 0.0000E+00 0.0000E+00 1.6805E-09 1.6805E-09 0.0000E+00 0.0000E+00 6.3549E-09 1.30E-06 1.40E-06   0.113 1.0000 1.7358E-06    261.480
 2765.00 0.86393446 5.8346E-09 0.0000E+00 0.0000E+00 1.5843E-09 1.5843E-09 0.0000E+00 0.0000E+00 7.4189E-09 1.22E-06 1.33E-06   0.146 1.0000 1.7419E-06    264.556
 2770.00 0.84575146 6.5270E-09 0.0000E+00 0.0000E+00 1.5051E-09 1.5051E-09 0.0000E+00 0.0000E+00 8.0320E-09 1.15E-06 1.27E-06   0.168 1.0000 1.7469E-06    266.345
 2775.00 0.85507107 6.0163E-09 0.0000E+00 0.0000E+00 1.5418E-09 1.5418E-09 0.0000E+00 0.0000E+00 7.5581E-09 1.18E-06 1.29E-06   0.157 1.0000 1.7508E-06    265.650
 2780.00 0.83537614 6.6875E-09 0.0000E+00 0.0000E+00 1.4814E-09 1.4814E-09 0.0000E+00 0.0000E+00 8.1689E-09 1.13E-06 1.25E-06   0.180 1.0000 1.7554E-06    267.415
 2785.00 0.80910218 7.6288E-09 0.0000E+00 0.0000E+00 1.3727E-09 1.3727E-09 0.0000E+00 0.0000E+00 9.0015E-09 1.03E-06 1.17E-06   0.212 1.0000 1.7610E-06    269.548
 2790.00 0.81465465 7.2845E-09 0.0000E+00 0.0000E+00 1.3775E-09 1.3775E-09 0.0000E+00 0.0000E+00 8.6620E-09 1.04E-06 1.17E-06   0.205 1.0000 1.7661E-06    269.238
 2795.00 0.82073629 6.8992E-09 0.0000E+00 0.0000E+00 1.3920E-09 1.3920E-09 0.0000E+00 0.0000E+00 8.2911E-09 1.05E-06 1.18E-06   0.198 1.0000 1.7712E-06    268.835
 2800.00 0.82102758 6.7710E-09 0.0000E+00 0.0000E+00 1.3993E-09 1.3993E-09 0.0000E+00 0.0000E+00 8.1702E-09 1.06E-06 1.19E-06   0.197 1.0000 1.7772E-06    268.955
 2805.00 0.83914012 5.9833E-09 0.0000E+00 0.0000E+00 1.4851E-09 1.4851E-09 0.0000E+00 0.0000E+00 7.4684E-09 1.13E-06 1.26E-06   0.175 1.0000 1.7825E-06    267.734
 2810.00 0.83050179 6.1586E-09 0.0000E+00 0.0000E+00 1.4697E-09 1.4697E-09 0.0000E+00 0.0000E+00 7.6283E-09 1.11E-06 1.25E-06   0.186 1.0000 1.7874E-06    268.494
 2815.00 0.80940151 6.8141E-09 0.0000E+00 0.0000E+00 1.3865E-09 1.3865E-09 0.0000E+00 0.0000E+00 8.2006E-09 1.04E-06 1.19E-06   0.211 1.0000 1.7953E-06    270.174
 2820.00 0.81361806 6.5437E-09 0.0000E+00 0.0000E+00 1.3663E-09 1.3663E-09 0.0000E+00 0.0000E+00 7.9100E-09 1.03E-06 1.17E-06   0.206 1.0000 1.8028E-06    269.908
 2825.00 0.81906211 6.2340E-09 0.0000E+00 0.0000E+00 1.3655E-09 1.3655E-09 0.0000E+00 0.0000E+00 7.5995E-09 1.03E-06 1.17E-06   0.200 1.0000 1.8069E-06    269.574
 2830.00 0.83538532 5.5766E-09 0.0000E+00 0.0000E+00 1.4521E-09 1.4521E-09 0.0000E+00 0.0000E+00 7.0287E-09 1.10E-06 1.24E-06   0.180 1.0000 1.8123E-06    268.565
 2835.00 0.86055362 4.6336E-09 0.0000E+00 0.0000E+00 1.5849E-09 1.5849E-09 0.0000E+00 0.0000E+00 6.2184E-09 1.21E-06 1.34E-06   0.150 1.0000 1.8196E-06    266.791
 2840.00 0.86963391 4.2441E-09 0.0000E+00 0.0000E+00 1.6431E-09 1.6431E-09 0.0000E+00 0.0000E+00 5.8872E-09 1.25E-06 1.39E-06   0.140 1.0000 1.8261E-06    266.217
 2845.00 0.87308383 4.0600E-09 0.0000E+00 0.0000E+00 1.6637E-09 1.6637E-09 0.0000E+00 0.0000E+00 5.7236E-09 1.27E-06 1.41E-06   0.136 1.0000 1.8327E-06    266.105
 2850.00 0.88873881 3.4972E-09 0.0000E+00 0.0000E+00 1.7122E-09 1.7122E-09 0.0000E+00 0.0000E+00 5.2094E-09 1.31E-06 1.44E-06   0.118 1.0000 1.8393E-06    264.861
 2855.00 0.90198392 3.0175E-09 0.0000E+00 0.0000E+00 1.7526E-09 1.7526E-09 0.0000E+00 0.0000E+00 4.7702E-09 1.35E-06 1.47E-06   0.103 1.0000 1.8448E-06    263.736
 2860.00 0.89659923 3.1174E-09 0.0000E+00 0.0000E+00 1.7256E-09 1.7256E-09 0.0000E+00 0.0000E+00 4.8430E-09 1.33E-06 1.45E-06   0.109 1.0000 1.8495E-06    264.366
 2865.00 0.88585716 3.3817E-09 0.0000E+00 0.0000E+00 1.6757E-09 1.6757E-09 0.0000E+00 0.0000E+00 5.0574E-09 1.29E-06 1.41E-06   0.121 1.0000 1.8550E-06    265.478
 2870.00 0.89116979 3.1710E-09 0.0000E+00 0.0000E+00 1.6817E-09 1.6817E-09 0.0000E+00 0.0000E+00 4.8526E-09 1.29E-06 1.42E-06   0.115 1.0000 1.8613E-06    265.146
 2875.00 0.88937038 3.1534E-09 0.0000E+00 0.0000E+00 1.6711E-09 1.6711E-09 0.0000E+00 0.0000E+00 4.8245E-09 1.28E-06 1.41E-06   0.117 1.0000 1.8663E-06    265.420
 2880.00 0.88078427 3.3422E-09 0.0000E+00 0.0000E+00 1.6431E-09 1.6431E-09 0.0000E+00 0.0000E+00 4.9853E-09 1.26E-06 1.39E-06   0.127 1.0000 1.8714E-06    266.352
 2885.00 0.87822306 3.3435E-09 0.0000E+00 0.0000E+00 1.6478E-09 1.6478E-09 0.0000E+00 0.0000E+00 4.9914E-09 1.27E-06 1.39E-06   0.130 1.0000 1.8785E-06    266.746
 2890.00 0.84040922 4.2857E-09 0.0000E+00 0.0000E+00 1.5592E-09 1.5592E-09 0.0000E+00 0.0000E+00 5.8449E-09 1.19E-06 1.32E-06   0.174 1.0000 1.8856E-06    269.856
 2895.00 0.81398094 4.9313E-09 0.0000E+00 0.0000E+00 1.4688E-09 1.4688E-09 0.0000E+00 0.0000E+00 6.4001E-09 1.12E-06 1.25E-06   0.206 1.0000 1.8916E-06    271.833
 2900.00 0.82775944 4.4787E-09 0.0000E+00 0.0000E+00 1.4870E-09 1.4870E-09 0.0000E+00 0.0000E+00 5.9658E-09 1.13E-06 1.27E-06   0.189 1.0000 1.8975E-06    270.968
 2905.00 0.81764668 4.6403E-09 0.0000E+00 0.0000E+00 1.4648E-09 1.4648E-09 0.0000E+00 0.0000E+00 6.1051E-09 1.11E-06 1.25E-06   0.201 1.0000 1.9035E-06    271.751
 2910.00 0.80897576 4.7844E-09 0.0000E+00 0.0000E+00 1.4539E-09 1.4539E-09 0.0000E+00 0.0000E+00 6.2384E-09 1.10E-06 1.25E-06   0.212 1.0000 1.9081E-06    272.510
 2915.00 0.82651722 4.2671E-09 0.0000E+00 0.0000E+00 1.4892E-09 1.4892E-09 0.0000E+00 0.0000E+00 5.7562E-09 1.14E-06 1.27E-06   0.191 1.0000 1.9114E-06    271.466
 2920.00 0.83631974 3.9460E-09 0.0000E+00 0.0000E+00 1.5069E-09 1.5069E-09 0.0000E+00 0.0000E+00 5.4529E-09 1.15E-06 1.28E-06   0.179 1.0000 1.9156E-06    270.892
 2925.00 0.77811509 5.2139E-09 0.0000E+00 0.0000E+00 1.3716E-09 1.3716E-09 0.0000E+00 0.0000E+00 6.5855E-09 1.04E-06 1.18E-06   0.251 1.0000 1.9197E-06    274.607
 2930.00 0.60961723 9.0042E-09 0.0000E+00 0.0000E+00 9.5659E-10 9.5659E-10 0.0000E+00 0.0000E+00 9.9608E-09 7.00E-07 8.52E-07   0.495 1.0000 1.9246E-06    282.613
 2935.00 0.52642876 1.0805E-08 0.0000E+00 0.0000E+00 7.6424E-10 7.6424E-10 0.0000E+00 0.0000E+00 1.1570E-08 5.45E-07 6.99E-07   0.642 1.0000 1.9277E-06    285.866
 2940.00 0.63604760 8.1809E-09 0.0000E+00 0.0000E+00 1.0374E-09 1.0374E-09 0.0000E+00 0.0000E+00 9.2183E-09 7.62E-07 9.22E-07   0.452 1.0000 1.9278E-06    281.920
 2945.00 0.72047126 6.1312E-09 0.0000E+00 0.0000E+00 1.2415E-09 1.2415E-09 0.0000E+00 0.0000E+00 7.3727E-09 9.24E-07 1.09E-06   0.328 1.0000 1.9369E-06    278.163
 2950.00 0.65470821 7.3996E-09 0.0000E+00 0.0000E+00 1.0993E-09 1.0993E-09 0.0000E+00 0.0000E+00 8.4989E-09 8.13E-07 9.73E-07   0.424 1.0000 1.9523E-06    281.165
 2955.00 0.53390890 9.8192E-09 0.0000E+00 0.0000E+00 8.0839E-10 8.0839E-10 0.0000E+00 0.0000E+00 1.0628E-08 5.80E-07 7.41E-07   0.628 1.0000 1.9608E-06    285.777
 2960.00 0.48561883 1.0662E-08 0.0000E+00 0.0000E+00 6.6771E-10 6.6771E-10 0.0000E+00 0.0000E+00 1.1330E-08 4.61E-07 6.36E-07   0.722 1.0000 1.9648E-06    287.398
 2965.00 0.47110724 1.0748E-08 0.0000E+00 0.0000E+00 6.2013E-10 6.2013E-10 0.0000E+00 0.0000E+00 1.1368E-08 4.20E-07 6.02E-07   0.753 1.0000 1.9682E-06    287.851
 2970.00 0.40557763 1.1847E-08 0.0000E+00 0.0000E+00 4.8894E-10 4.8894E-10 0.0000E+00 0.0000E+00 1.2336E-08 3.22E-07 4.89E-07   0.902 1.0000 1.9744E-06    289.836
 2975.00 0.31505847 1.3404E-08 0.0000E+00 0.0000E+00 3.3773E-10 3.3773E-10 0.0000E+00 0.0000E+00 1.3742E-08 2.13E-07 3.53E-07   1.155 1.0000 1.9837E-06    292.364
 2980.00 0.29749092 1.3516E-08 0.0000E+00 0.0000E+00 3.0911E-10 3.0911E-10 0.0000E+00 0.0000E+00 1.3825E-08 1.89E-07 3.32E-07   1.212 1.0000 1.9909E-06    292.875
 2985.00 0.32516381 1.2727E-08 0.0000E+00 0.0000E+00 3.5468E-10 3.5468E-10 0.0000E+00 0.0000E+00 1.3081E-08 2.19E-07 3.78E-07   1.123 1.0000 1.9965E-06    292.163
 2990.00 0.30429038 1.2873E-08 0.0000E+00 0.0000E+00 3.3940E-10 3.3940E-10 0.0000E+00 0.0000E+00 1.3212E-08 2.13E-07 3.59E-07   1.190 1.0000 2.0026E-06    292.751
 2995.00 0.35793626 1.1696E-08 0.0000E+00 0.0000E+00 4.4212E-10 4.4212E-10 0.0000E+00 0.0000E+00 1.2138E-08 2.92E-07 4.51E-07   1.027 1.0000 2.0084E-06    291.458
 3000.00 0.42678156 1.0213E-08 0.0000E+00 0.0000E+00 5.3131E-10 5.3131E-10 0.0000E+00 0.0000E+00 1.0744E-08 3.55E-07 5.36E-07   0.851 1.0000 2.0151E-06    289.459
 3005.00 0.31781447 1.1891E-08 0.0000E+00 0.0000E+00 3.2830E-10 3.2830E-10 0.0000E+00 0.0000E+00 1.2219E-08 2.12E-07 3.43E-07   1.146 1.0000 2.0160E-06    292.366
 3010.00 0.15446565 1.4491E-08 0.0000E+00 0.0000E+00 1.0251E-10 1.0251E-10 0.0000E+00 0.0000E+00 1.4594E-08 6.00E-08 1.16E-07   1.868 1.0000 2.0118E-06    296.311
 3015.00 0.12303508 1.4785E-08 0.0000E+00 0.0000E+00 6.2564E-11 6.2564E-11 0.0000E+00 0.0000E+00 1.4847E-08 3.58E-08 7.29E-08   2.095 1.0000 2.0184E-06    297.052
 3020.00 0.19190587 1.3369E-08 0.0000E+00 0.0000E+00 1.0395E-10 1.0395E-10 0.0000E+00 0.0000E+00 1.3473E-08 5.76E-08 1.25E-07   1.651 1.0000 2.0334E-06    295.479
 3025.00 0.18828432 1.3144E-08 0.0000E+00 0.0000E+00 1.0043E-10 1.0043E-10 0.0000E+00 0.0000E+00 1.3244E-08 5.18E-08 1.28E-07   1.670 1.0000 2.0361E-06    295.524
 3030.00 0.12199140 1.3964E-08 0.0000E+00 0.0000E+00 6.6045E-11 6.6045E-11 0.0000E+00 0.0000E+00 1.4030E-08 3.33E-08 8.61E-08   2.104 1.0000 2.0256E-06    297.076
 3035.00 0.20902745 1.2392E-08 0.0000E+00 0.0000E+00 2.1095E-10 2.1095E-10 0.0000E+00 0.0000E+00 1.2603E-08 1.34E-07 2.30E-07   1.565 1.0000 2.0277E-06    295.307
 3040.00 0.42079350 8.9016E-09 0.0000E+00 0.0000E+00 4.9720E-10 4.9720E-10 0.0000E+00 0.0000E+00 9.3988E-09 3.26E-07 5.29E-07   0.866 1.0000 2.0481E-06    289.945
 3045.00 0.44580615 8.2933E-09 0.0000E+00 0.0000E+00 5.1236E-10 5.1236E-10 0.0000E+00 0.0000E+00 8.8056E-09 3.31E-07 5.53E-07   0.808 1.0000 2.0649E-06    289.078
 3050.00 0.29169837 1.0410E-08 0.0000E+00 0.0000E+00 2.7431E-10 2.7431E-10 0.0000E+00 0.0000E+00 1.0684E-08 1.67E-07 3.14E-07   1.232 1.0000 2.0741E-06    293.198
 3055.00 0.18060499 1.1835E-08 0.0000E+00 0.0000E+00 1.1935E-10 1.1935E-10 0.0000E+00 0.0000E+00 1.1954E-08 6.40E-08 1.52E-07   1.711 1.0000 2.0827E-06    295.801
 3060.00 0.11212108 1.2588E-08 0.0000E+00 0.0000E+00 5.4521E-11 5.4521E-11 0.0000E+00 0.0000E+00 1.2643E-08 2.65E-08 7.52E-08   2.188 1.0000 2.0897E-06    297.309
 3065.00 0.14321078 1.1953E-08 0.0000E+00 0.0000E+00 1.0310E-10 1.0310E-10 0.0000E+00 0.0000E+00 1.2056E-08 5.95E-08 1.27E-07   1.943 1.0000 2.0955E-06    296.744
 3070.00 0.29190218 9.6952E-09 0.0000E+00 0.0000E+00 2.6750E-10 2.6750E-10 0.0000E+00 0.0000E+00 9.9627E-09 1.64E-07 3.11E-07   1.231 1.0000 2.1024E-06    293.366
 3075.00 0.29340374 9.4393E-09 0.0000E+00 0.0000E+00 2.7350E-10 2.7350E-10 0.0000E+00 0.0000E+00 9.7128E-09 1.69E-07 3.16E-07   1.226 1.0000 2.1094E-06    293.254
 3080.00 0.16095804 1.1014E-08 0.0000E+00 0.0000E+00 1.2449E-10 1.2449E-10 0.0000E+00 0.0000E+00 1.1138E-08 7.42E-08 1.49E-07   1.827 1.0000 2.1135E-06    296.325
 3085.00 0.18469694 1.0533E-08 0.0000E+00 0.0000E+00 1.2103E-10 1.2103E-10 0.0000E+00 0.0000E+00 1.0654E-08 6.76E-08 1.54E-07   1.689 1.0000 2.1178E-06    295.831
 3090.00 0.23407032 9.6799E-09 0.0000E+00 0.0000E+00 1.7332E-10 1.7332E-10 0.0000E+00 0.0000E+00 9.8532E-09 9.91E-08 2.17E-07   1.452 1.0000 2.1255E-06    294.680
 3095.00 0.12817694 1.0802E-08 0.0000E+00 0.0000E+00 9.2959E-11 9.2959E-11 0.0000E+00 0.0000E+00 1.0895E-08 5.29E-08 1.18E-07   2.054 1.0000 2.1334E-06    297.039
 3100.00 0.04584990 1.1624E-08 0.0000E+00 0.0000E+00 1.6981E-11 1.6981E-11 0.0000E+00 0.0000E+00 1.1641E-08 8.12E-09 2.50E-08   3.082 1.0000 2.1403E-06    298.743
 3105.00 0.04654431 1.1395E-08 0.0000E+00 0.0000E+00 9.6829E-12 9.6829E-12 0.0000E+00 0.0000E+00 1.1405E-08 3.41E-09 1.73E-08   3.067 1.0000 2.1463E-06    298.718
 3110.00 0.03385682 1.1323E-08 0.0000E+00 0.0000E+00 6.2930E-12 6.2930E-12 0.0000E+00 0.0000E+00 1.1330E-08 2.11E-09 1.16E-08   3.386 1.0000 2.1521E-06    298.971
 3115.00 0.01416136 1.1342E-08 0.0000E+00 0.0000E+00 1.4760E-12 1.4760E-12 0.0000E+00 0.0000E+00 1.1343E-08 3.68E-10 3.24E-09   4.257 1.0000 2.1593E-06    299.379
 3120.00 0.01428860 1.1129E-08 0.0000E+00 0.0000E+00 2.0426E-12 2.0426E-12 0.0000E+00 0.0000E+00 1.1131E-08 7.21E-10 3.94E-09   4.248 1.0000 2.1646E-06    299.385
 3125.00 0.04753447 1.0551E-08 0.0000E+00 0.0000E+00 1.7498E-11 1.7498E-11 0.0000E+00 0.0000E+00 1.0569E-08 7.93E-09 2.75E-08   3.046 1.0000 2.1695E-06    298.737
 3130.00 0.12773599 9.4817E-09 0.0000E+00 0.0000E+00 7.9766E-11 7.9766E-11 0.0000E+00 0.0000E+00 9.5615E-09 4.52E-08 1.08E-07   2.058 1.0000 2.1781E-06    297.143
 3135.00 0.25291437 7.9704E-09 0.0000E+00 0.0000E+00 2.2033E-10 2.2033E-10 0.0000E+00 0.0000E+00 8.1907E-09 1.40E-07 2.72E-07   1.375 1.0000 2.1859E-06    294.517
 3140.00 0.39866358 6.2902E-09 0.0000E+00 0.0000E+00 4.2811E-10 4.2811E-10 0.0000E+00 0.0000E+00 6.7183E-09 2.91E-07 5.01E-07   0.920 1.0000 2.1903E-06    291.129
 3145.00 0.48487049 5.2726E-09 0.0000E+00 0.0000E+00 5.8163E-10 5.8163E-10 0.0000E+00 0.0000E+00 5.8542E-09 4.10E-07 6.62E-07   0.724 1.0000 2.1953E-06    288.940
 3150.00 0.51588410 4.8608E-09 0.0000E+00 0.0000E+00 6.6117E-10 6.6117E-10 0.0000E+00 0.0000E+00 5.5219E-09 4.81E-07 7.39E-07   0.662 1.0000 2.2003E-06    288.236
 3155.00 0.58392787 4.1059E-09 0.0000E+00 0.0000E+00 8.2910E-10 8.2910E-10 0.0000E+00 0.0000E+00 4.9350E-09 6.27E-07 9.02E-07   0.538 1.0000 2.2043E-06    286.559
 3160.00 0.58168983 4.0256E-09 0.0000E+00 0.0000E+00 8.4732E-10 8.4732E-10 0.0000E+00 0.0000E+00 4.8729E-09 6.49E-07 9.17E-07   0.542 1.0000 2.2123E-06    286.698
 3165.00 0.42481631 5.4240E-09 0.0000E+00 0.0000E+00 5.2846E-10 5.2846E-10 0.0000E+00 0.0000E+00 5.9525E-09 3.90E-07 5.98E-07   0.856 1.0000 2.2199E-06    290.734
 3170.00 0.29099548 6.5815E-09 0.0000E+00 0.0000E+00 2.7192E-10 2.7192E-10 0.0000E+00 0.0000E+00 6.8534E-09 1.81E-07 3.38E-07   1.234 1.0000 2.2217E-06    293.748
 3175.00 0.22714700 7.0396E-09 0.0000E+00 0.0000E+00 1.8367E-10 1.8367E-10 0.0000E+00 0.0000E+00 7.2232E-09 1.17E-07 2.40E-07   1.482 1.0000 2.2269E-06    295.120
 3180.00 0.18084551 7.3283E-09 0.0000E+00 0.0000E+00 1.2419E-10 1.2419E-10 0.0000E+00 0.0000E+00 7.4525E-09 7.47E-08 1.71E-07   1.710 1.0000 2.2385E-06    296.092
 3185.00 0.24362172 6.6542E-09 0.0000E+00 0.0000E+00 2.0461E-10 2.0461E-10 0.0000E+00 0.0000E+00 6.8588E-09 1.32E-07 2.70E-07   1.412 1.0000 2.2478E-06    294.883
 3190.00 0.32323572 5.8234E-09 0.0000E+00 0.0000E+00 3.1029E-10 3.1029E-10 0.0000E+00 0.0000E+00 6.1337E-09 2.06E-07 3.99E-07   1.129 1.0000 2.2535E-06    293.150
 3195.00 0.24859093 6.3301E-09 0.0000E+00 0.0000E+00 2.2685E-10 2.2685E-10 0.0000E+00 0.0000E+00 6.5569E-09 1.48E-07 2.97E-07   1.392 1.0000 2.2588E-06    294.777
 3200.00 0.21199304 6.5363E-09 0.0000E+00 0.0000E+00 1.7439E-10 1.7439E-10 0.0000E+00 0.0000E+00 6.7107E-09 1.11E-07 2.38E-07   1.551 1.0000 2.2636E-06    295.589
 3205.00 0.24678859 6.1176E-09 0.0000E+00 0.0000E+00 2.0202E-10 2.0202E-10 0.0000E+00 0.0000E+00 6.3196E-09 1.29E-07 2.75E-07   1.399 1.0000 2.2617E-06    294.825
 3210.00 0.15396477 6.7275E-09 0.0000E+00 0.0000E+00 1.0883E-10 1.0883E-10 0.0000E+00 0.0000E+00 6.8363E-09 6.84E-08 1.52E-07   1.871 1.0000 2.2614E-06    296.688
 3215.00 0.05351441 7.4005E-09 0.0000E+00 0.0000E+00 1.8184E-11 1.8184E-11 0.0000E+00 0.0000E+00 7.4187E-09 9.53E-09 3.00E-08   2.928 1.0000 2.2759E-06    298.628
 3220.00 0.06421770 7.1834E-09 0.0000E+00 0.0000E+00 2.6526E-11 2.6526E-11 0.0000E+00 0.0000E+00 7.2100E-09 1.38E-08 4.39E-08   2.745 1.0000 2.2905E-06    298.453
 3225.00 0.08493850 6.8833E-09 0.0000E+00 0.0000E+00 4.1122E-11 4.1122E-11 0.0000E+00 0.0000E+00 6.9245E-09 2.20E-08 6.66E-08   2.466 1.0000 2.2959E-06    298.051
 3230.00 0.06386407 6.9058E-09 0.0000E+00 0.0000E+00 2.4465E-11 2.4465E-11 0.0000E+00 0.0000E+00 6.9303E-09 1.23E-08 4.19E-08   2.751 1.0000 2.3011E-06    298.441
 3235.00 0.05748227 6.8233E-09 0.0000E+00 0.0000E+00 1.3385E-11 1.3385E-11 0.0000E+00 0.0000E+00 6.8367E-09 5.28E-09 2.69E-08   2.856 1.0000 2.3076E-06    298.553
 3240.00 0.06362673 6.6469E-09 0.0000E+00 0.0000E+00 1.7903E-11 1.7903E-11 0.0000E+00 0.0000E+00 6.6648E-09 7.92E-09 3.42E-08   2.755 1.0000 2.3127E-06    298.438
 3245.00 0.10686009 6.2255E-09 0.0000E+00 0.0000E+00 5.8107E-11 5.8107E-11 0.0000E+00 0.0000E+00 6.2836E-09 3.35E-08 9.39E-08   2.236 1.0000 2.3195E-06    297.688
 3250.00 0.15610532 5.7614E-09 0.0000E+00 0.0000E+00 9.7582E-11 9.7582E-11 0.0000E+00 0.0000E+00 5.8590E-09 5.82E-08 1.54E-07   1.857 1.0000 2.3287E-06    296.736
 3255.00 0.11850559 5.8965E-09 0.0000E+00 0.0000E+00 6.4169E-11 6.4169E-11 0.0000E+00 0.0000E+00 5.9607E-09 3.69E-08 1.05E-07   2.133 1.0000 2.3342E-06    297.430
 3260.00 0.09422635 5.9514E-09 0.0000E+00 0.0000E+00 3.9840E-11 3.9840E-11 0.0000E+00 0.0000E+00 5.9912E-09 2.14E-08 7.00E-08   2.362 1.0000 2.3374E-06    297.896
 3265.00 0.12621705 5.6300E-09 0.0000E+00 0.0000E+00 6.8677E-11 6.8677E-11 0.0000E+00 0.0000E+00 5.6986E-09 4.10E-08 1.13E-07   2.070 1.0000 2.3439E-06    297.321
 3270.00 0.11310519 5.5988E-09 0.0000E+00 0.0000E+00 7.0826E-11 7.0826E-11 0.0000E+00 0.0000E+00 5.6696E-09 4.42E-08 1.12E-07   2.179 1.0000 2.3520E-06    297.594
 3275.00 0.05681842 5.8441E-09 0.0000E+00 0.0000E+00 3.1304E-11 3.1304E-11 0.0000E+00 0.0000E+00 5.8754E-09 1.90E-08 5.11E-08   2.868 1.0000 2.3595E-06    298.636
 3280.00 0.05718809 5.7362E-09 0.0000E+00 0.0000E+00 2.1221E-11 2.1221E-11 0.0000E+00 0.0000E+00 5.7574E-09 1.05E-08 4.08E-08   2.861 1.0000 2.3622E-06    298.621
 3285.00 0.08497386 5.4542E-09 0.0000E+00 0.0000E+00 3.4563E-11 3.4563E-11 0.0000E+00 0.0000E+00 5.4888E-09 1.76E-08 6.53E-08   2.465 1.0000 2.3515E-06    298.089
 3290.00 0.07532457 5.4043E-09 0.0000E+00 0.0000E+00 2.9139E-11 2.9139E-11 0.0000E+00 0.0000E+00 5.4334E-09 1.49E-08 5.55E-08   2.586 1.0000 2.3434E-06    298.266
 3295.00 0.09397773 5.1990E-09 0.0000E+00 0.0000E+00 4.6647E-11 4.6647E-11 0.0000E+00 0.0000E+00 5.2457E-09 2.78E-08 8.25E-08   2.365 1.0000 2.3598E-06    297.973
 3300.00 0.17272745 4.6567E-09 0.0000E+00 0.0000E+00 1.1375E-10 1.1375E-10 0.0000E+00 0.0000E+00 4.7704E-09 7.50E-08 1.88E-07   1.756 1.0000 2.3838E-06    296.571
 %-9999.
